LabVIEW Measurement	
Writer_Version	2
Reader_Version	2
Separator	Tab
Decimal_Separator	.
Multi_Headings	No
X_Columns	Multi
Time_Pref	Absolute
Operator	mmolter
Date	2018/09/11
Time	13:16:57.5734778300348560879
***End_of_Header***	
	
Channels	1	
Samples	5000	
Date	2018/09/11	
Time	13:16:57.5734778300348560879	
Y_Unit_Label	Volts	
X_Dimension	Time	
X0	0.0000000000000000E+0	
Delta_X	0.001000	
***End_of_Header***		
X_Value	Voltage	Comment
0.000000	-0.017886
0.001000	-0.064126
0.002000	-0.102187
0.003000	-0.133389
0.004000	-0.152323
0.005000	-0.157057
0.006000	-0.141375
0.007000	-0.112910
0.008000	-0.080226
0.009000	-0.035596
0.010000	0.006908
0.011000	0.039914
0.012000	0.064643
0.013000	0.074110
0.014000	0.067252
0.015000	0.042103
0.016000	0.010482
0.017000	-0.030541
0.018000	-0.076588
0.019000	-0.110688
0.020000	-0.139153
0.021000	-0.153901
0.022000	-0.151711
0.023000	-0.130942
0.024000	-0.101446
0.025000	-0.064738
0.026000	-0.018079
0.027000	0.020561
0.028000	0.052536
0.029000	0.071406
0.030000	0.076783
0.031000	0.062422
0.032000	0.033345
0.033000	0.000500
0.034000	-0.044097
0.035000	-0.086505
0.036000	-0.117804
0.037000	-0.143629
0.038000	-0.152677
0.039000	-0.144949
0.040000	-0.120380
0.041000	-0.088534
0.042000	-0.047124
0.043000	-0.001303
0.044000	0.033313
0.045000	0.061842
0.046000	0.077427
0.047000	0.075881
0.048000	0.055016
0.049000	0.025359
0.050000	-0.010641
0.051000	-0.057042
0.052000	-0.095071
0.053000	-0.127464
0.054000	-0.145819
0.055000	-0.150552
0.056000	-0.136416
0.057000	-0.107436
0.058000	-0.074430
0.059000	-0.029736
0.060000	0.012253
0.061000	0.044486
0.062000	0.070407
0.063000	0.080679
0.064000	0.073112
0.065000	0.048286
0.066000	0.017695
0.067000	-0.023296
0.068000	-0.069310
0.069000	-0.104731
0.070000	-0.132649
0.071000	-0.147171
0.072000	-0.146559
0.073000	-0.125146
0.074000	-0.095167
0.075000	-0.059135
0.076000	-0.013281
0.077000	0.025423
0.078000	0.058558
0.079000	0.077717
0.080000	0.082225
0.081000	0.069409
0.082000	0.040493
0.083000	0.007810
0.084000	-0.037078
0.085000	-0.080226
0.086000	-0.111493
0.087000	-0.136287
0.088000	-0.147010
0.089000	-0.138670
0.090000	-0.113876
0.091000	-0.083221
0.092000	-0.042326
0.093000	0.003431
0.094000	0.039205
0.095000	0.068089
0.096000	0.082805
0.097000	0.082611
0.098000	0.062486
0.099000	0.032250
0.100000	-0.003976
0.101000	-0.050280
0.102000	-0.088180
0.103000	-0.119897
0.104000	-0.139539
0.105000	-0.143790
0.106000	-0.130266
0.107000	-0.102026
0.108000	-0.069020
0.109000	-0.024197
0.110000	0.018404
0.111000	0.051087
0.112000	0.076493
0.113000	0.087184
0.114000	0.080583
0.115000	0.055144
0.116000	0.024651
0.117000	-0.016051
0.118000	-0.061775
0.119000	-0.096777
0.120000	-0.125693
0.121000	-0.140119
0.122000	-0.139217
0.123000	-0.118931
0.124000	-0.088952
0.125000	-0.052759
0.126000	-0.006648
0.127000	0.032572
0.128000	0.064128
0.129000	0.084382
0.130000	0.089760
0.131000	0.076139
0.132000	0.047835
0.133000	0.015280
0.134000	-0.029221
0.135000	-0.071661
0.136000	-0.104183
0.137000	-0.129171
0.138000	-0.139250
0.139000	-0.132681
0.140000	-0.107500
0.141000	-0.076169
0.142000	-0.035242
0.143000	0.010289
0.144000	0.045130
0.145000	0.075044
0.146000	0.090372
0.147000	0.089534
0.148000	0.069699
0.149000	0.040493
0.150000	0.004397
0.151000	-0.041747
0.152000	-0.080999
0.153000	-0.112781
0.154000	-0.131972
0.155000	-0.137382
0.156000	-0.123117
0.157000	-0.094588
0.158000	-0.062097
0.159000	-0.018659
0.160000	0.024618
0.161000	0.057431
0.162000	0.082933
0.163000	0.093012
0.164000	0.087377
0.165000	0.062744
0.166000	0.031638
0.167000	-0.009321
0.168000	-0.055271
0.169000	-0.090530
0.170000	-0.118738
0.171000	-0.134516
0.172000	-0.133776
0.173000	-0.112716
0.174000	-0.083800
0.175000	-0.047800
0.176000	-0.001754
0.177000	0.038143
0.178000	0.069924
0.179000	0.089245
0.180000	0.095910
0.181000	0.082515
0.182000	0.054307
0.183000	0.020787
0.184000	-0.023167
0.185000	-0.066380
0.186000	-0.098387
0.187000	-0.124566
0.188000	-0.134742
0.189000	-0.127851
0.190000	-0.103829
0.191000	-0.072788
0.192000	-0.032054
0.193000	0.014185
0.194000	0.049638
0.195000	0.078715
0.196000	0.094880
0.197000	0.095202
0.198000	0.074432
0.199000	0.044905
0.200000	0.008744
0.201000	-0.036434
0.202000	-0.075783
0.203000	-0.107693
0.204000	-0.127496
0.205000	-0.132520
0.206000	-0.119350
0.207000	-0.091368
0.208000	-0.057911
0.209000	-0.014054
0.210000	0.029416
0.211000	0.061778
0.212000	0.088214
0.213000	0.099355
0.214000	0.092626
0.215000	0.068572
0.216000	0.037499
0.217000	-0.002591
0.218000	-0.048316
0.219000	-0.084477
0.220000	-0.113425
0.221000	-0.127947
0.222000	-0.128624
0.223000	-0.107693
0.224000	-0.077972
0.225000	-0.042165
0.226000	0.003817
0.227000	0.043037
0.228000	0.075849
0.229000	0.095974
0.230000	0.101964
0.231000	0.089373
0.232000	0.061423
0.233000	0.028450
0.234000	-0.015342
0.235000	-0.059038
0.236000	-0.091174
0.237000	-0.116226
0.238000	-0.127400
0.239000	-0.120799
0.240000	-0.096391
0.241000	-0.065221
0.242000	-0.025357
0.243000	0.021205
0.244000	0.057012
0.245000	0.087119
0.246000	0.102898
0.247000	0.102865
0.248000	0.083545
0.249000	0.053760
0.250000	0.018114
0.251000	-0.027611
0.252000	-0.067121
0.253000	-0.098967
0.254000	-0.118996
0.255000	-0.124759
0.256000	-0.111300
0.257000	-0.083156
0.258000	-0.050570
0.259000	-0.006552
0.260000	0.036758
0.261000	0.070246
0.262000	0.096071
0.263000	0.107534
0.264000	0.101706
0.265000	0.077491
0.266000	0.045838
0.267000	0.006103
0.268000	-0.039879
0.269000	-0.075171
0.270000	-0.104634
0.271000	-0.120348
0.272000	-0.119607
0.273000	-0.100062
0.274000	-0.070824
0.275000	-0.035049
0.276000	0.011223
0.277000	0.051055
0.278000	0.083255
0.279000	0.103928
0.280000	0.110368
0.281000	0.097810
0.282000	0.069152
0.283000	0.036790
0.284000	-0.006101
0.285000	-0.050215
0.286000	-0.082641
0.287000	-0.108563
0.288000	-0.118996
0.289000	-0.113264
0.290000	-0.089242
0.291000	-0.057493
0.292000	-0.017081
0.293000	0.028643
0.294000	0.064321
0.295000	0.094268
0.296000	0.110915
0.297000	0.110819
0.298000	0.091756
0.299000	0.062067
0.300000	0.027162
0.301000	-0.018498
0.302000	-0.058684
0.303000	-0.090949
0.304000	-0.110559
0.305000	-0.117128
0.306000	-0.104280
0.307000	-0.075718
0.308000	-0.042874
0.309000	0.000372
0.310000	0.043649
0.311000	0.077298
0.312000	0.103864
0.313000	0.114812
0.314000	0.109627
0.315000	0.085960
0.316000	0.054951
0.317000	0.015055
0.318000	-0.031507
0.319000	-0.067346
0.320000	-0.096037
0.321000	-0.112362
0.322000	-0.112459
0.323000	-0.092527
0.324000	-0.063289
0.325000	-0.028222
0.326000	0.017341
0.327000	0.057753
0.328000	0.090468
0.329000	0.111270
0.330000	0.117517
0.331000	0.106118
0.332000	0.077910
0.333000	0.045098
0.334000	0.001917
0.335000	-0.042230
0.336000	-0.074140
0.337000	-0.099965
0.338000	-0.111783
0.339000	-0.105375
0.340000	-0.081933
0.341000	-0.051246
0.342000	-0.011188
0.343000	0.035309
0.344000	0.071985
0.345000	0.101320
0.346000	0.117452
0.347000	0.118869
0.348000	0.099194
0.349000	0.069441
0.350000	0.034343
0.351000	-0.010931
0.352000	-0.050344
0.353000	-0.081997
0.354000	-0.103507
0.355000	-0.108981
0.356000	-0.096938
0.357000	-0.069568
0.358000	-0.036562
0.359000	0.007005
0.360000	0.051087
0.361000	0.084028
0.362000	0.110110
0.363000	0.122186
0.364000	0.117001
0.365000	0.092883
0.366000	0.062583
0.367000	0.023008
0.368000	-0.023135
0.369000	-0.059070
0.370000	-0.089081
0.371000	-0.104505
0.372000	-0.105793
0.373000	-0.086376
0.374000	-0.056269
0.375000	-0.021010
0.376000	0.024135
0.377000	0.064869
0.378000	0.096618
0.379000	0.118483
0.380000	0.125212
0.381000	0.113234
0.382000	0.085542
0.383000	0.053438
0.384000	0.010257
0.385000	-0.033825
0.386000	-0.066863
0.387000	-0.092817
0.388000	-0.104183
0.389000	-0.098870
0.390000	-0.074881
0.391000	-0.044001
0.392000	-0.004362
0.393000	0.041942
0.394000	0.077942
0.395000	0.108790
0.396000	0.124923
0.397000	0.126275
0.398000	0.107019
0.399000	0.078071
0.400000	0.043327
0.401000	-0.002494
0.402000	-0.042552
0.403000	-0.074527
0.404000	-0.095554
0.405000	-0.102283
0.406000	-0.090112
0.407000	-0.062065
0.408000	-0.029478
0.409000	0.013058
0.410000	0.057495
0.411000	0.091338
0.412000	0.117613
0.413000	0.129495
0.414000	0.125084
0.415000	0.101738
0.416000	0.070826
0.417000	0.031123
0.418000	-0.015020
0.419000	-0.051053
0.420000	-0.080774
0.421000	-0.097292
0.422000	-0.097679
0.423000	-0.078809
0.424000	-0.049571
0.425000	-0.014827
0.426000	0.031187
0.427000	0.072404
0.428000	0.104282
0.429000	0.125631
0.430000	0.133778
0.431000	0.121896
0.432000	0.093849
0.433000	0.061456
0.434000	0.018758
0.435000	-0.024970
0.436000	-0.058008
0.437000	-0.084766
0.438000	-0.095747
0.439000	-0.091239
0.440000	-0.068054
0.441000	-0.036401
0.442000	0.003205
0.443000	0.049735
0.444000	0.085477
0.445000	0.115713
0.446000	0.133327
0.447000	0.134196
0.448000	0.115584
0.449000	0.086669
0.450000	0.052665
0.451000	0.006908
0.452000	-0.033568
0.453000	-0.065994
0.454000	-0.086859
0.455000	-0.093847
0.456000	-0.082609
0.457000	-0.053822
0.458000	-0.021332
0.459000	0.021334
0.460000	0.065255
0.461000	0.098422
0.462000	0.126050
0.463000	0.138254
0.464000	0.133134
0.465000	0.110658
0.466000	0.080389
0.467000	0.040976
0.468000	-0.005038
0.469000	-0.042552
0.470000	-0.071532
0.471000	-0.087439
0.472000	-0.089500
0.473000	-0.069986
0.474000	-0.040652
0.475000	-0.006841
0.476000	0.039109
0.477000	0.079713
0.478000	0.112783
0.479000	0.134647
0.480000	0.141796
0.481000	0.131556
0.482000	0.103928
0.483000	0.071502
0.484000	0.028515
0.485000	-0.015890
0.486000	-0.048927
0.487000	-0.074494
0.488000	-0.087439
0.489000	-0.081836
0.490000	-0.058298
0.491000	-0.028126
0.492000	0.010998
0.493000	0.057431
0.494000	0.094686
0.495000	0.125116
0.496000	0.141763
0.497000	0.144178
0.498000	0.126017
0.499000	0.096200
0.500000	0.061971
0.501000	0.016568
0.502000	-0.024036
0.503000	-0.055464
0.504000	-0.078037
0.505000	-0.084766
0.506000	-0.073303
0.507000	-0.045578
0.508000	-0.013764
0.509000	0.029835
0.510000	0.074207
0.511000	0.108017
0.512000	0.134583
0.513000	0.147592
0.514000	0.143502
0.515000	0.120221
0.516000	0.089631
0.517000	0.050733
0.518000	0.004686
0.519000	-0.032183
0.520000	-0.062162
0.521000	-0.078487
0.522000	-0.080130
0.523000	-0.061743
0.524000	-0.032344
0.525000	0.002014
0.526000	0.047899
0.527000	0.088536
0.528000	0.121252
0.529000	0.143631
0.530000	0.151262
0.531000	0.140926
0.532000	0.113266
0.533000	0.081420
0.534000	0.038561
0.535000	-0.005811
0.536000	-0.039299
0.537000	-0.065897
0.538000	-0.077972
0.539000	-0.073786
0.540000	-0.050119
0.541000	-0.019722
0.542000	0.019821
0.543000	0.065577
0.544000	0.102801
0.545000	0.133713
0.546000	0.151005
0.547000	0.152390
0.548000	0.134937
0.549000	0.106279
0.550000	0.071728
0.551000	0.026293
0.552000	-0.015052
0.553000	-0.046448
0.554000	-0.068183
0.555000	-0.076330
0.556000	-0.064480
0.557000	-0.037142
0.558000	-0.005392
0.559000	0.037885
0.560000	0.081581
0.561000	0.116454
0.562000	0.143728
0.563000	0.156060
0.564000	0.153130
0.565000	0.129978
0.566000	0.099355
0.567000	0.060329
0.568000	0.013541
0.569000	-0.022620
0.570000	-0.052180
0.571000	-0.069632
0.572000	-0.070920
0.573000	-0.052663
0.574000	-0.024552
0.575000	0.010160
0.576000	0.055531
0.577000	0.097842
0.578000	0.130429
0.579000	0.152454
0.580000	0.161116
0.581000	0.150940
0.582000	0.122733
0.583000	0.090565
0.584000	0.048189
0.585000	0.003785
0.586000	-0.028577
0.587000	-0.056494
0.588000	-0.068570
0.589000	-0.064384
0.590000	-0.041521
0.591000	-0.011188
0.592000	0.028643
0.593000	0.074851
0.594000	0.112622
0.595000	0.142794
0.596000	0.160697
0.597000	0.163016
0.598000	0.145016
0.599000	0.116196
0.600000	0.082547
0.601000	0.037016
0.602000	-0.003557
0.603000	-0.036079
0.604000	-0.058169
0.605000	-0.065575
0.606000	-0.055432
0.607000	-0.028029
0.608000	0.005137
0.609000	0.047899
0.610000	0.092046
0.611000	0.125921
0.612000	0.153806
0.613000	0.167073
0.614000	0.163016
0.615000	0.140701
0.616000	0.110851
0.617000	0.072339
0.618000	0.025745
0.619000	-0.011510
0.620000	-0.042294
0.621000	-0.058394
0.622000	-0.061357
0.623000	-0.043292
0.624000	-0.013990
0.625000	0.020368
0.626000	0.065191
0.627000	0.107019
0.628000	0.139767
0.629000	0.162661
0.630000	0.170422
0.631000	0.160923
0.632000	0.134164
0.633000	0.101642
0.634000	0.058847
0.635000	0.014153
0.636000	-0.019883
0.637000	-0.046319
0.638000	-0.060262
0.639000	-0.055625
0.640000	-0.032956
0.641000	-0.002398
0.642000	0.035985
0.643000	0.082064
0.644000	0.119932
0.645000	0.150876
0.646000	0.167974
0.647000	0.171130
0.648000	0.154128
0.649000	0.124665
0.650000	0.090565
0.651000	0.044583
0.652000	0.003624
0.653000	-0.028673
0.654000	-0.051761
0.655000	-0.059392
0.656000	-0.049153
0.657000	-0.022620
0.658000	0.009806
0.659000	0.052246
0.660000	0.097166
0.661000	0.131588
0.662000	0.158701
0.663000	0.172515
0.664000	0.168941
0.665000	0.146336
0.666000	0.115971
0.667000	0.077169
0.668000	0.031026
0.669000	-0.006262
0.670000	-0.037464
0.671000	-0.054562
0.672000	-0.057010
0.673000	-0.039943
0.674000	-0.010770
0.675000	0.023008
0.676000	0.068572
0.677000	0.110722
0.678000	0.143341
0.679000	0.166139
0.680000	0.174833
0.681000	0.164819
0.682000	0.138157
0.683000	0.106375
0.684000	0.063645
0.685000	0.018726
0.686000	-0.015568
0.687000	-0.042777
0.688000	-0.055593
0.689000	-0.052598
0.690000	-0.029897
0.691000	0.001305
0.692000	0.039720
0.693000	0.086218
0.694000	0.123216
0.695000	0.154161
0.696000	0.173255
0.697000	0.175381
0.698000	0.158701
0.699000	0.130107
0.700000	0.096329
0.701000	0.050733
0.702000	0.008647
0.703000	-0.023875
0.704000	-0.045997
0.705000	-0.054820
0.706000	-0.045031
0.707000	-0.017339
0.708000	0.014185
0.709000	0.056368
0.710000	0.101320
0.711000	0.136289
0.712000	0.164690
0.713000	0.177280
0.714000	0.175091
0.715000	0.153227
0.716000	0.122572
0.717000	0.083771
0.718000	0.037370
0.719000	-0.000434
0.720000	-0.030251
0.721000	-0.048541
0.722000	-0.051214
0.723000	-0.033407
0.724000	-0.004813
0.725000	0.028386
0.726000	0.074110
0.727000	0.116776
0.728000	0.149620
0.729000	0.172515
0.730000	0.181627
0.731000	0.172998
0.732000	0.145853
0.733000	0.113813
0.734000	0.071631
0.735000	0.026422
0.736000	-0.007002
0.737000	-0.034759
0.738000	-0.048026
0.739000	-0.044355
0.740000	-0.022587
0.741000	0.007778
0.742000	0.046676
0.743000	0.093559
0.744000	0.131749
0.745000	0.162339
0.746000	0.181273
0.747000	0.184976
0.748000	0.167974
0.749000	0.139252
0.750000	0.105216
0.751000	0.060618
0.752000	0.018597
0.753000	-0.013571
0.754000	-0.036981
0.755000	-0.044709
0.756000	-0.035886
0.757000	-0.009224
0.758000	0.023298
0.759000	0.065545
0.760000	0.110915
0.761000	0.144855
0.762000	0.173513
0.763000	0.187552
0.764000	0.184590
0.765000	0.162533
0.766000	0.132393
0.767000	0.094558
0.768000	0.048414
0.769000	0.009871
0.770000	-0.021332
0.771000	-0.038333
0.772000	-0.042197
0.773000	-0.025196
0.774000	0.004042
0.775000	0.037885
0.776000	0.082579
0.777000	0.124182
0.778000	0.157509
0.779000	0.181756
0.780000	0.190032
0.781000	0.181499
0.782000	0.155738
0.783000	0.123280
0.784000	0.081677
0.785000	0.035309
0.786000	0.001595
0.787000	-0.025614
0.788000	-0.040040
0.789000	-0.036659
0.790000	-0.014280
0.791000	0.015538
0.792000	0.053438
0.793000	0.100000
0.794000	0.137996
0.795000	0.170035
0.796000	0.188196
0.797000	0.192093
0.798000	0.175928
0.799000	0.146948
0.800000	0.112815
0.801000	0.067831
0.802000	0.025134
0.803000	-0.006455
0.804000	-0.029929
0.805000	-0.038494
0.806000	-0.028995
0.807000	-0.003332
0.808000	0.028772
0.809000	0.070890
0.810000	0.115939
0.811000	0.151101
0.812000	0.179470
0.813000	0.193574
0.814000	0.191706
0.815000	0.169713
0.816000	0.138833
0.817000	0.101545
0.818000	0.054951
0.819000	0.017824
0.820000	-0.013378
0.821000	-0.031442
0.822000	-0.034147
0.823000	-0.018079
0.824000	0.010643
0.825000	0.044615
0.826000	0.089695
0.827000	0.132779
0.828000	0.165592
0.829000	0.189420
0.830000	0.199305
0.831000	0.190740
0.832000	0.164400
0.833000	0.132715
0.834000	0.091209
0.835000	0.045935
0.836000	0.012221
0.837000	-0.015986
0.838000	-0.029607
0.839000	-0.026580
0.840000	-0.005231
0.841000	0.025552
0.842000	0.063677
0.843000	0.110593
0.844000	0.148461
0.845000	0.180178
0.846000	0.199499
0.847000	0.203170
0.848000	0.187102
0.849000	0.158443
0.850000	0.125760
0.851000	0.080776
0.852000	0.038561
0.853000	0.005685
0.854000	-0.017596
0.855000	-0.026451
0.856000	-0.018047
0.857000	0.008486
0.858000	0.040719
0.859000	0.082740
0.860000	0.127756
0.861000	0.162597
0.862000	0.191738
0.863000	0.205520
0.864000	0.203524
0.865000	0.182754
0.866000	0.152679
0.867000	0.115745
0.868000	0.068508
0.869000	0.030543
0.870000	-0.000144
0.871000	-0.018949
0.872000	-0.022394
0.873000	-0.005875
0.874000	0.023073
0.875000	0.056304
0.876000	0.100772
0.877000	0.143824
0.878000	0.177184
0.879000	0.201109
0.880000	0.210125
0.881000	0.202976
0.882000	0.177023
0.883000	0.145563
0.884000	0.103542
0.885000	0.057881
0.886000	0.023588
0.887000	-0.003976
0.888000	-0.018595
0.889000	-0.015471
0.890000	0.005942
0.891000	0.036050
0.892000	0.073016
0.893000	0.119771
0.894000	0.159023
0.895000	0.190289
0.896000	0.208901
0.897000	0.214214
0.898000	0.198822
0.899000	0.169359
0.900000	0.136547
0.901000	0.091209
0.902000	0.049735
0.903000	0.018243
0.904000	-0.006841
0.905000	-0.015020
0.906000	-0.006680
0.907000	0.018855
0.908000	0.050701
0.909000	0.092593
0.910000	0.138801
0.911000	0.173932
0.912000	0.202203
0.913000	0.217144
0.914000	0.215567
0.915000	0.193831
0.916000	0.163885
0.917000	0.127016
0.918000	0.080647
0.919000	0.043262
0.920000	0.011062
0.921000	-0.006938
0.922000	-0.010673
0.923000	0.004203
0.924000	0.033635
0.925000	0.067381
0.926000	0.112300
0.927000	0.155191
0.928000	0.187230
0.929000	0.212701
0.930000	0.222039
0.931000	0.214118
0.932000	0.188905
0.933000	0.158186
0.934000	0.116711
0.935000	0.071245
0.936000	0.036114
0.937000	0.008293
0.938000	-0.005328
0.939000	-0.003911
0.940000	0.018372
0.941000	0.048865
0.942000	0.085928
0.943000	0.132586
0.944000	0.171259
0.945000	0.203331
0.946000	0.222844
0.947000	0.227481
0.948000	0.212765
0.949000	0.184654
0.950000	0.151327
0.951000	0.106343
0.952000	0.063710
0.953000	0.032153
0.954000	0.007810
0.955000	-0.002044
0.956000	0.006522
0.957000	0.032411
0.958000	0.063677
0.959000	0.105184
0.960000	0.151037
0.961000	0.186264
0.962000	0.215341
0.963000	0.229606
0.964000	0.228415
0.965000	0.207549
0.966000	0.177957
0.967000	0.140636
0.968000	0.094525
0.969000	0.055949
0.970000	0.024554
0.971000	0.006071
0.972000	0.001660
0.973000	0.017051
0.974000	0.045838
0.975000	0.078715
0.976000	0.123763
0.977000	0.166783
0.978000	0.199241
0.979000	0.224035
0.980000	0.234243
0.981000	0.226933
0.982000	0.201656
0.983000	0.170035
0.984000	0.128787
0.985000	0.083223
0.986000	0.048736
0.987000	0.020432
0.988000	0.006168
0.989000	0.008357
0.990000	0.029255
0.991000	0.059202
0.992000	0.095974
0.993000	0.143116
0.994000	0.181788
0.995000	0.213474
0.996000	0.233116
0.997000	0.238332
0.998000	0.223520
0.999000	0.195119
1.000000	0.161792
1.001000	0.117420
1.002000	0.075302
1.003000	0.042812
1.004000	0.018436
1.005000	0.008583
1.006000	0.016150
1.007000	0.041491
1.008000	0.073080
1.009000	0.114812
1.010000	0.160150
1.011000	0.194926
1.012000	0.224068
1.013000	0.239620
1.014000	0.237946
1.015000	0.217756
1.016000	0.188035
1.017000	0.152293
1.018000	0.105989
1.019000	0.067509
1.020000	0.035406
1.021000	0.017534
1.022000	0.012350
1.023000	0.027033
1.024000	0.056400
1.025000	0.089309
1.026000	0.134067
1.027000	0.175767
1.028000	0.208869
1.029000	0.234694
1.030000	0.244354
1.031000	0.237399
1.032000	0.212636
1.033000	0.181241
1.034000	0.140250
1.035000	0.093881
1.036000	0.058654
1.037000	0.031252
1.038000	0.016053
1.039000	0.017599
1.040000	0.039141
1.041000	0.068797
1.042000	0.104411
1.043000	0.151005
1.044000	0.189871
1.045000	0.222941
1.046000	0.241713
1.047000	0.246865
1.048000	0.233889
1.049000	0.204586
1.050000	0.171774
1.051000	0.126822
1.052000	0.083932
1.053000	0.052375
1.054000	0.027613
1.055000	0.016633
1.056000	0.025359
1.057000	0.050282
1.058000	0.080647
1.059000	0.122089
1.060000	0.167781
1.061000	0.204425
1.062000	0.233019
1.063000	0.247735
