LabVIEW Measurement	
Writer_Version	2
Reader_Version	2
Separator	Tab
Decimal_Separator	.
Multi_Headings	No
X_Columns	One
Time_Pref	Absolute
Operator	machine07
Date	2018/11/19
Time	09:07:52.2131250998842608932
***End_of_Header***	
	
Channels	2		
Samples	100	100	
Date	2018/11/19	2018/11/19	
Time	11:59:38.2131250998844754299	11:59:38.2131400995330315431	
Y_Unit_Label	Lbf	Volts	
X_Dimension	Time	Time	
X0	0.0000000000000000E+0	0.0000000000000000E+0	
Delta_X	0.010000	0.010000	
***End_of_Header***			
X_Value	Load-lbf	Strain-usn	Comment
0.000000	19.134521	-33.764648
0.010000	23.834229	-36.816406
0.020000	17.456055	-36.816406
0.030000	20.812988	-0.195312
0.040000	17.120361	-21.557617
0.050000	20.477295	-3.247070
0.060000	23.498535	-3.247070
0.070000	21.148682	-15.454102
0.080000	20.477295	2.856445
0.090000	23.162842	2.856445
0.100000	24.505615	-9.350586
0.110000	20.812988	-12.402344
0.120000	24.505615	-0.195312
0.130000	26.519775	21.166992
0.140000	22.827148	8.959961
0.150000	20.477295	-39.868164
0.160000	22.491455	-12.402344
0.170000	23.834229	-6.298828
0.180000	19.805908	24.218750
0.190000	23.162842	-18.505859
0.200000	19.805908	-27.661133
0.210000	21.484375	-91.748047
0.220000	24.841309	48.632812
0.230000	24.169922	-21.557617
0.240000	21.148682	-15.454102
0.250000	23.834229	-6.298828
0.260000	28.198242	2.856445
0.270000	26.184082	-18.505859
0.280000	19.470215	-39.868164
0.290000	23.498535	21.166992
0.300000	21.484375	-27.661133
0.310000	22.827148	-0.195312
0.320000	21.484375	-107.006836
0.330000	22.827148	-21.557617
0.340000	21.148682	-15.454102
0.350000	22.155762	-12.402344
0.360000	15.441895	-21.557617
0.370000	20.141602	-3.247070
0.380000	21.820068	-27.661133
0.390000	23.162842	5.908203
0.400000	23.834229	-12.402344
0.410000	23.834229	-12.402344
0.420000	23.498535	-24.609375
0.430000	20.477295	-36.816406
0.440000	23.162842	-27.661133
0.450000	19.805908	-24.609375
0.460000	16.784668	-15.454102
0.470000	20.141602	-27.661133
0.480000	19.805908	-61.230469
0.490000	23.498535	-12.402344
0.500000	19.134521	-24.609375
0.510000	24.505615	-21.557617
0.520000	14.434814	-15.454102
0.530000	23.162842	-0.195312
0.540000	26.184082	-3.247070
0.550000	22.491455	-21.557617
0.560000	27.862549	-9.350586
0.570000	22.827148	-27.661133
0.580000	21.484375	5.908203
0.590000	24.169922	-97.851562
0.600000	20.141602	-18.505859
0.610000	19.470215	-18.505859
0.620000	24.169922	-18.505859
0.630000	21.820068	8.959961
0.640000	21.820068	-18.505859
0.650000	18.798828	-18.505859
0.660000	22.491455	-24.609375
0.670000	23.162842	-9.350586
0.680000	19.470215	-21.557617
0.690000	17.120361	-9.350586
0.700000	21.148682	18.115234
0.710000	22.155762	-3.247070
0.720000	22.491455	-3.247070
0.730000	21.148682	-18.505859
0.740000	24.505615	15.063477
0.750000	23.162842	-36.816406
0.760000	24.169922	-0.195312
0.770000	22.827148	21.166992
0.780000	21.148682	2.856445
0.790000	20.477295	-24.609375
0.800000	25.512695	-6.298828
0.810000	26.184082	-12.402344
0.820000	24.505615	-3.247070
0.830000	22.491455	-9.350586
0.840000	22.827148	-30.712891
0.850000	21.484375	-9.350586
0.860000	22.491455	-6.298828
0.870000	21.820068	-88.696289
0.880000	18.127441	-21.557617
0.890000	23.162842	-6.298828
0.900000	21.148682	-21.557617
0.910000	25.512695	-21.557617
0.920000	21.148682	-24.609375
0.930000	21.820068	5.908203
0.940000	23.162842	-12.402344
0.950000	21.484375	-9.350586
0.960000	23.498535	-3.247070
0.970000	16.113281	-33.764648
0.980000	20.477295	-21.557617
0.990000	24.169922	-9.350586
1.000000	23.498535	2.856445
1.010000	27.526855	39.477539
1.020000	25.177002	-3.247070
1.030000	21.484375	-6.298828
1.040000	23.162842	-21.557617
1.050000	14.099121	-9.350586
1.060000	22.827148	-15.454102
1.070000	22.827148	-21.557617
1.080000	22.491455	-3.247070
1.090000	20.812988	-24.609375
1.100000	23.162842	-15.454102
1.110000	22.155762	-3.247070
1.120000	23.834229	-58.178711
1.130000	21.484375	-9.350586
1.140000	23.834229	-9.350586
1.150000	20.477295	-3.247070
1.160000	18.463135	5.908203
1.170000	23.498535	18.115234
1.180000	17.120361	-21.557617
1.190000	22.827148	-21.557617
1.200000	22.827148	-70.385742
1.210000	21.484375	-12.402344
1.220000	21.148682	-9.350586
1.230000	21.484375	-18.505859
1.240000	25.512695	12.011719
1.250000	25.848389	-15.454102
1.260000	17.456055	-15.454102
1.270000	22.827148	-18.505859
1.280000	24.169922	-21.557617
1.290000	24.169922	-9.350586
1.300000	19.470215	-15.454102
1.310000	23.162842	-15.454102
1.320000	24.505615	-64.282227
1.330000	22.827148	-9.350586
1.340000	23.498535	12.011719
1.350000	24.505615	-9.350586
1.360000	23.834229	-9.350586
1.370000	26.184082	-9.350586
1.380000	24.841309	-6.298828
1.390000	29.205322	-3.247070
1.400000	30.212402	-9.350586
1.410000	30.212402	-39.868164
1.420000	36.590576	-18.505859
1.430000	37.261963	-9.350586
1.440000	37.933350	-3.247070
1.450000	44.647217	-33.764648
1.460000	44.311523	-15.454102
1.470000	48.339844	-27.661133
1.480000	49.346924	-33.764648
1.490000	52.032471	-30.712891
1.500000	53.710937	-27.661133
1.510000	58.410645	-110.058594
1.520000	59.417725	-58.178711
1.530000	62.774658	-39.868164
1.540000	65.795898	-45.971680
1.550000	68.145752	-55.126953
1.560000	72.174072	-21.557617
1.570000	71.166992	-52.075195
1.580000	71.838379	-58.178711
1.590000	78.216553	-52.075195
1.600000	78.887939	-36.816406
1.610000	84.594727	-61.230469
1.620000	88.623047	-61.230469
1.630000	90.637207	-76.489258
1.640000	97.686768	-52.075195
1.650000	95.336914	-67.333984
1.660000	95.336914	-103.955078
1.670000	97.351074	-70.385742
1.680000	100.372314	-64.282227
1.690000	111.785889	-70.385742
1.700000	109.436035	-67.333984
1.710000	111.114502	-82.592773
1.720000	111.450195	-94.799805
1.730000	118.164062	-49.023437
1.740000	118.499756	-152.783203
1.750000	120.178223	-79.541016
1.760000	123.535156	-107.006836
1.770000	127.227783	-79.541016
1.780000	124.542236	-76.489258
1.790000	136.627197	-91.748047
1.800000	133.941650	-64.282227
1.810000	135.284424	-70.385742
1.820000	137.969971	-58.178711
1.830000	138.305664	-73.437500
1.840000	144.683838	-79.541016
1.850000	143.341064	-55.126953
1.860000	146.697998	-67.333984
1.870000	150.054932	-61.230469
1.880000	152.404785	-79.541016
1.890000	156.097412	-55.126953
1.900000	156.768799	-76.489258
1.910000	159.454346	-58.178711
1.920000	165.496826	-64.282227
1.930000	165.496826	-39.868164
1.940000	167.846680	-36.816406
1.950000	172.210693	-58.178711
1.960000	171.203613	-125.317383
1.970000	175.231934	-24.609375
1.980000	177.581787	-39.868164
1.990000	182.952881	-45.971680
2.000000	184.967041	-39.868164
2.010000	190.673828	-33.764648
2.020000	187.988281	-21.557617
2.030000	189.666748	-18.505859
2.040000	194.366455	-55.126953
2.050000	194.366455	-21.557617
2.060000	198.059082	-15.454102
2.070000	199.737549	-12.402344
2.080000	202.087402	-12.402344
2.090000	205.108643	-21.557617
2.100000	205.780029	2.856445
2.110000	208.801270	-9.350586
2.120000	217.193604	21.166992
2.130000	210.815430	-21.557617
2.140000	220.214844	5.908203
2.150000	215.850830	-3.247070
2.160000	230.285645	27.270508
2.170000	228.942871	-0.195312
2.180000	238.677979	33.374023
2.190000	241.699219	42.529297
2.200000	243.041992	33.374023
2.210000	246.063232	45.581055
2.220000	247.070312	85.253906
2.230000	241.027832	63.891602
2.240000	244.720459	39.477539
2.250000	243.377686	48.632812
2.260000	248.077393	51.684570
2.270000	250.762939	42.529297
2.280000	251.770020	57.788086
2.290000	259.155273	63.891602
2.300000	257.812500	88.305664
2.310000	258.819580	-15.454102
2.320000	262.847900	82.202148
2.330000	262.176514	45.581055
2.340000	268.890381	73.046875
2.350000	271.575928	112.719727
2.360000	275.268555	103.564453
2.370000	272.583008	69.995117
2.380000	278.961182	85.253906
2.390000	283.660889	91.357422
2.400000	283.996582	97.460937
2.410000	286.682129	94.409180
2.420000	292.053223	131.030273
2.430000	287.017822	88.305664
2.440000	297.088623	109.667969
2.450000	298.431396	112.719727
2.460000	301.452637	82.202148
2.470000	298.431396	103.564453
2.480000	300.109863	115.771484
2.490000	306.488037	140.185547
2.500000	308.502197	112.719727
2.510000	315.216064	140.185547
2.520000	311.187744	143.237305
2.530000	317.230225	127.978516
2.540000	319.580078	121.875000
2.550000	321.594238	167.651367
2.560000	324.615479	124.926758
2.570000	331.329346	161.547852
2.580000	334.686279	143.237305
2.590000	329.315186	146.289062
2.600000	331.329346	161.547852
2.610000	336.029053	161.547852
2.620000	336.364746	170.703125
2.630000	341.064453	176.806641
2.640000	346.435547	179.858398
2.650000	344.421387	185.961914
2.660000	356.842041	192.065430
2.670000	361.206055	204.272461
2.680000	365.234375	195.117187
2.690000	368.591309	207.324219
2.700000	359.527588	192.065430
2.710000	364.227295	189.013672
2.720000	363.891602	195.117187
2.730000	368.591309	253.100586
2.740000	365.570068	182.910156
2.750000	368.255615	222.583008
2.760000	371.276855	222.583008
2.770000	375.976562	246.997070
2.780000	375.640869	237.841797
2.790000	377.319336	228.686523
2.800000	380.676270	134.082031
2.810000	382.690430	195.117187
2.820000	388.732910	246.997070
2.830000	390.075684	246.997070
2.840000	401.153564	210.375977
2.850000	405.181885	243.945312
2.860000	402.496338	259.204102
2.870000	398.132324	256.152344
2.880000	399.810791	176.806641
2.890000	399.810791	256.152344
2.900000	407.531738	271.411133
2.910000	408.538818	243.945312
2.920000	414.916992	262.255859
2.930000	414.245605	274.462891
2.940000	417.938232	268.359375
2.950000	415.252686	265.307617
2.960000	419.616699	234.790039
2.970000	426.330566	292.773437
2.980000	425.659180	304.980469
2.990000	434.051514	301.928711
3.000000	428.680420	286.669922
3.010000	438.079834	268.359375
3.020000	441.772461	286.669922
3.030000	442.108154	298.876953
3.040000	452.850342	320.239258
3.050000	443.450928	298.876953
3.060000	446.136475	298.876953
3.070000	449.829102	314.135742
3.080000	450.164795	314.135742
3.090000	456.207275	372.119141
3.100000	455.871582	317.187500
3.110000	459.899902	350.756836
3.120000	465.270996	323.291016
3.130000	462.921143	308.032227
3.140000	469.299316	323.291016
3.150000	472.320557	320.239258
3.160000	471.984863	301.928711
3.170000	480.041504	417.895508
3.180000	474.670410	344.653320
3.190000	479.370117	372.119141
3.200000	482.055664	353.808594
3.210000	486.419678	356.860352
3.220000	485.748291	359.912109
3.230000	489.440918	338.549805
3.240000	487.426758	362.963867
3.250000	496.154785	372.119141
3.260000	498.840332	359.912109
3.270000	502.868652	384.326172
3.280000	494.812012	366.015625
3.290000	503.875732	381.274414
3.300000	504.211426	387.377930
3.310000	514.953613	396.533203
3.320000	530.731201	445.361328
3.330000	528.045654	427.050781
3.340000	532.073975	396.533203
3.350000	530.395508	405.688477
3.360000	532.745361	399.584961
3.370000	535.766602	366.015625
3.380000	539.123535	411.791992
3.390000	541.137695	439.257812
3.400000	538.116455	430.102539
3.410000	540.130615	369.067383
3.420000	541.137695	417.895508
3.430000	548.187256	417.895508
3.440000	553.558350	423.999023
3.450000	550.872803	439.257812
3.460000	553.558350	427.050781
3.470000	558.258057	439.257812
3.480000	554.565430	448.413086
3.490000	563.293457	466.723633
3.500000	559.600830	445.361328
3.510000	562.622070	448.413086
3.520000	569.335937	454.516602
3.530000	571.014404	445.361328
3.540000	564.636230	463.671875
3.550000	575.378418	472.827148
3.560000	571.014404	448.413086
3.570000	581.420898	481.982422
3.580000	581.085205	466.723633
3.590000	583.435059	472.827148
3.600000	589.477539	475.878906
3.610000	593.505859	481.982422
3.620000	595.520020	497.241211
3.630000	589.141846	451.464844
3.640000	594.512939	494.189453
3.650000	599.548340	478.930664
3.660000	602.569580	500.292969
3.670000	605.590820	463.671875
3.680000	604.583740	509.448242
3.690000	607.604980	506.396484
3.700000	608.276367	506.396484
3.710000	610.961914	494.189453
3.720000	612.304687	527.758789
3.730000	614.990234	521.655273
3.740000	621.704102	567.431641
3.750000	630.096436	518.603516
3.760000	624.725342	543.017578
3.770000	624.389648	530.810547
3.780000	630.096436	512.500000
3.790000	632.110596	604.052734
3.800000	640.502930	536.914062
3.810000	638.824463	521.655273
3.820000	642.181396	549.121094
3.830000	640.502930	530.810547
3.840000	642.852783	543.017578
3.850000	651.916504	524.707031
3.860000	649.230957	564.379883
3.870000	652.252197	546.069336
3.880000	655.944824	521.655273
3.890000	656.616211	567.431641
3.900000	659.637451	591.845703
3.910000	660.980225	564.379883
3.920000	664.337158	591.845703
3.930000	668.029785	570.483398
3.940000	672.729492	564.379883
3.950000	675.415039	588.793945
3.960000	673.736572	555.224609
3.970000	678.436279	594.897461
3.980000	677.429199	601.000977
3.990000	683.471680	597.949219
4.000000	685.821533	585.742187
4.010000	686.492920	607.104492
4.020000	689.849854	607.104492
4.030000	692.199707	616.259766
4.040000	694.549561	610.156250
4.050000	697.235107	628.466797
4.060000	704.284668	622.363281
4.070000	705.627441	637.622070
4.080000	702.606201	625.415039
4.090000	707.641602	631.518555
4.100000	710.327148	631.518555
4.110000	709.655762	631.518555
4.120000	709.991455	622.363281
4.130000	713.012695	640.673828
4.140000	715.026855	643.725586
4.150000	720.397949	668.139648
4.160000	724.426270	662.036133
4.170000	723.754883	613.208008
4.180000	728.118896	649.829102
4.190000	729.461670	662.036133
4.200000	730.468750	643.725586
4.210000	736.175537	680.346680
4.220000	741.882324	655.932617
4.230000	741.546631	662.036133
4.240000	746.582031	707.812500
4.250000	748.260498	668.139648
4.260000	749.267578	668.139648
4.270000	754.302979	704.760742
4.280000	752.960205	652.880859
4.290000	754.638672	692.553711
4.300000	759.338379	701.708984
4.310000	761.352539	658.984375
4.320000	769.073486	695.605469
4.330000	765.716553	710.864258
4.340000	765.716553	723.071289
4.350000	769.744873	720.019531
4.360000	776.123047	723.071289
4.370000	778.472900	701.708984
4.380000	773.437500	707.812500
4.390000	783.508301	726.123047
4.400000	784.515381	680.346680
4.410000	782.836914	723.071289
4.420000	790.893555	729.174805
4.430000	789.215088	720.019531
4.440000	797.607422	747.485352
4.450000	794.586182	726.123047
4.460000	795.928955	674.243164
4.470000	796.936035	732.226562
4.480000	801.971436	744.433594
4.490000	806.335449	744.433594
4.500000	807.006836	750.537109
4.510000	818.084717	759.692383
4.520000	817.077637	790.209961
4.530000	814.727783	765.795898
4.540000	818.420410	753.588867
4.550000	822.448730	765.795898
4.560000	826.141357	787.158203
4.570000	832.519531	787.158203
4.580000	830.841064	784.106445
4.590000	832.183838	768.847656
4.600000	832.183838	805.468750
4.610000	832.855225	765.795898
4.620000	838.226318	796.313477
4.630000	838.897705	802.416992
4.640000	838.562012	796.313477
4.650000	846.954346	805.468750
4.660000	848.632812	817.675781
4.670000	846.618652	778.002930
4.680000	847.625732	808.520508
4.690000	857.025146	857.348633
4.700000	855.010986	814.624023
4.710000	865.081787	857.348633
4.720000	865.417480	796.313477
4.730000	858.032227	817.675781
4.740000	869.445801	823.779297
4.750000	868.774414	811.572266
4.760000	871.459961	835.986328
4.770000	878.509521	854.296875
4.780000	877.502441	897.021484
4.790000	881.866455	854.296875
4.800000	881.866455	811.572266
4.810000	878.173828	848.193359
4.820000	885.559082	863.452148
4.830000	886.901855	784.106445
4.840000	898.315430	845.141602
4.850000	894.958496	863.452148
4.860000	895.965576	860.400391
4.870000	899.993896	851.245117
4.880000	901.336670	860.400391
4.890000	906.372070	823.779297
4.900000	905.364990	860.400391
4.910000	909.393311	884.814453
4.920000	914.428711	863.452148
4.930000	919.128418	878.710937
4.940000	923.156738	887.866211
4.950000	918.792725	811.572266
4.960000	924.499512	906.176758
4.970000	926.849365	893.969727
4.980000	928.527832	906.176758
4.990000	932.891846	915.332031
5.000000	936.584473	909.228516
5.010000	939.270020	890.917969
5.020000	947.326660	994.677734
5.030000	941.955566	927.539062
5.040000	948.669434	915.332031
5.050000	940.277100	921.435547
5.060000	945.648193	936.694336
5.070000	951.354980	921.435547
5.080000	951.019287	936.694336
5.090000	956.390381	900.073242
5.100000	960.083008	955.004883
5.110000	960.083008	921.435547
5.120000	959.747314	958.056641
5.130000	963.104248	948.901367
5.140000	965.118408	955.004883
5.150000	972.167969	958.056641
5.160000	973.510742	961.108398
5.170000	974.182129	951.953125
5.180000	976.867676	985.522461
5.190000	978.210449	961.108398
5.200000	981.567383	982.470703
5.210000	991.638184	979.418945
5.220000	993.652344	985.522461
5.230000	994.323730	958.056641
5.240000	993.652344	1003.833008
5.250000	999.359131	985.522461
5.260000	997.009277	988.574219
5.270000	1004.058838	979.418945
5.280000	999.023437	1003.833008
5.290000	1009.429932	994.677734
5.300000	1010.437012	994.677734
5.310000	1015.808105	1003.833008
5.320000	1024.536133	1037.402344
5.330000	1016.143799	1031.298828
5.340000	1019.165039	1019.091797
5.350000	1020.507812	1012.988281
5.360000	1023.864746	991.625977
5.370000	1025.543213	1025.195312
5.380000	1034.942627	1022.143555
5.390000	1029.235840	1025.195312
5.400000	1036.621094	1031.298828
5.410000	1033.599854	997.729492
5.420000	1041.656494	1046.557617
5.430000	1040.313721	1031.298828
5.440000	1047.363281	1046.557617
5.450000	1046.691895	1061.816406
5.460000	1050.720215	1043.505859
5.470000	1056.762695	1064.868164
5.480000	1054.077148	1058.764648
5.490000	1055.755615	1074.023437
5.500000	1059.783936	1052.661133
5.510000	1067.169189	1061.816406
5.520000	1061.798096	1046.557617
5.530000	1065.826416	1043.505859
5.540000	1069.854736	1070.971680
5.550000	1069.854736	1107.592773
5.560000	1075.225830	1046.557617
5.570000	1078.918457	1083.178711
5.580000	1077.239990	1095.385742
5.590000	1077.911377	1101.489258
5.600000	1079.589844	1083.178711
5.610000	1085.296631	1101.489258
5.620000	1093.688965	1104.541016
5.630000	1098.052979	1144.213867
5.640000	1095.703125	1104.541016
5.650000	1096.710205	1125.903320
5.660000	1103.088379	1080.126953
5.670000	1101.074219	1141.162109
5.680000	1103.759766	1113.696289
5.690000	1107.116699	1122.851562
5.700000	1106.781006	1128.955078
5.710000	1112.823486	1132.006836
5.720000	1117.187500	1180.834961
5.730000	1119.873047	1135.058594
5.740000	1116.851807	1150.317383
5.750000	1124.908447	1101.489258
5.760000	1124.237061	1168.627930
5.770000	1122.558594	1156.420898
5.780000	1126.586914	1144.213867
5.790000	1133.300781	1153.369141
5.800000	1137.664795	1147.265625
5.810000	1139.678955	1153.369141
5.820000	1142.028809	1196.093750
5.830000	1139.678955	1180.834961
5.840000	1143.035889	1168.627930
5.850000	1156.127930	1156.420898
5.860000	1147.735596	1159.472656
5.870000	1155.120850	1214.404297
5.880000	1151.763916	1186.938477
5.890000	1157.470703	1189.990234
5.900000	1157.135010	1174.731445
5.910000	1161.163330	1205.249023
5.920000	1166.534424	1214.404297
5.930000	1163.177490	1177.783203
5.940000	1177.276611	1220.507812
5.950000	1173.919678	1193.041992
5.960000	1171.905518	1217.456055
5.970000	1178.619385	1199.145508
5.980000	1170.898437	1211.352539
5.990000	1182.983398	1217.456055
6.000000	1183.654785	1235.766602
6.010000	1190.368652	1208.300781
6.020000	1193.054199	1254.077148
6.030000	1190.704346	1223.559570
6.040000	1193.389893	1238.818359
6.050000	1195.739746	1241.870117
6.060000	1196.746826	1238.818359
6.070000	1204.132080	1241.870117
6.080000	1203.796387	1238.818359
6.090000	1205.810547	1263.232422
