LabVIEW Measurement	
Writer_Version	2
Reader_Version	2
Separator	Tab
Decimal_Separator	.
Multi_Headings	No
X_Columns	One
Time_Pref	Absolute
Operator	machine07
Date	2018/11/19
Time	09:07:52.2131250998842608932
***End_of_Header***	
	
Channels	2		
Samples	100	100	
Date	2018/11/19	2018/11/19	
Time	11:49:24.2131250998844626485	11:49:24.2131400995330187617	
Y_Unit_Label	Lbf	Volts	
X_Dimension	Time	Time	
X0	0.0000000000000000E+0	0.0000000000000000E+0	
Delta_X	0.010000	0.010000	
***End_of_Header***			
X_Value	Load-lbf	Strain-usn	Comment
0.000000	22.827148	-22.602539
0.010000	27.191162	-22.602539
0.020000	20.477295	7.915039
0.030000	23.162842	7.915039
0.040000	24.841309	1.811523
0.050000	22.827148	-19.550781
0.060000	22.827148	14.018555
0.070000	21.148682	-19.550781
0.080000	24.505615	-40.913086
0.090000	20.812988	7.915039
0.100000	20.477295	14.018555
0.110000	24.169922	-22.602539
0.120000	21.820068	-16.499023
0.130000	22.827148	-13.447266
0.140000	22.827148	-47.016602
0.150000	19.805908	-31.757812
0.160000	22.491455	-7.343750
0.170000	22.827148	14.018555
0.180000	19.134521	-34.809570
0.190000	28.198242	-25.654297
0.200000	21.148682	-19.550781
0.210000	22.491455	-101.948242
0.220000	21.820068	-34.809570
0.230000	23.834229	-13.447266
0.240000	26.855469	-4.291992
0.250000	21.148682	1.811523
0.260000	23.834229	-19.550781
0.270000	22.491455	-40.913086
0.280000	22.155762	-7.343750
0.290000	17.791748	14.018555
0.300000	22.491455	-13.447266
0.310000	22.827148	-7.343750
0.320000	15.106201	-10.395508
0.330000	21.484375	-13.447266
0.340000	22.155762	-10.395508
0.350000	22.827148	-16.499023
0.360000	22.491455	-34.809570
0.370000	21.148682	-47.016602
0.380000	21.148682	-37.861328
0.390000	22.155762	-1.240234
0.400000	19.805908	-22.602539
0.410000	25.512695	-19.550781
0.420000	21.484375	-16.499023
0.430000	23.162842	-25.654297
0.440000	22.827148	-10.395508
0.450000	25.177002	-16.499023
0.460000	24.505615	-25.654297
0.470000	21.820068	-19.550781
0.480000	23.498535	-13.447266
0.490000	23.498535	-10.395508
0.500000	22.155762	-4.291992
0.510000	23.498535	-19.550781
0.520000	17.456055	-53.120117
0.530000	21.484375	-13.447266
0.540000	24.169922	10.966797
0.550000	19.134521	-13.447266
0.560000	20.812988	-25.654297
0.570000	22.827148	-13.447266
0.580000	25.848389	-7.343750
0.590000	24.169922	-16.499023
0.600000	21.484375	-10.395508
0.610000	24.169922	-13.447266
0.620000	22.155762	-7.343750
0.630000	19.470215	-34.809570
0.640000	24.169922	14.018555
0.650000	24.841309	-28.706055
0.660000	22.155762	-10.395508
0.670000	26.519775	14.018555
0.680000	22.827148	-16.499023
0.690000	22.155762	-19.550781
0.700000	22.155762	-1.240234
0.710000	24.841309	14.018555
0.720000	22.155762	1.811523
0.730000	22.827148	-10.395508
0.740000	22.491455	-126.362305
0.750000	21.148682	-7.343750
0.760000	23.162842	-4.291992
0.770000	23.498535	-13.447266
0.780000	25.177002	-7.343750
0.790000	23.498535	-28.706055
0.800000	19.805908	-10.395508
0.810000	22.155762	-62.275391
0.820000	25.848389	1.811523
0.830000	20.812988	-34.809570
0.840000	23.498535	-22.602539
0.850000	26.184082	-16.499023
0.860000	24.841309	10.966797
0.870000	18.463135	-19.550781
0.880000	22.155762	-89.741211
0.890000	22.155762	-19.550781
0.900000	25.848389	53.691406
0.910000	23.498535	-7.343750
0.920000	24.505615	-13.447266
0.930000	24.841309	-77.534180
0.940000	25.848389	-10.395508
0.950000	22.155762	-37.861328
0.960000	25.512695	-13.447266
0.970000	22.827148	-34.809570
0.980000	23.162842	-7.343750
0.990000	22.827148	-10.395508
1.000000	21.148682	-25.654297
1.010000	24.841309	-7.343750
1.020000	22.491455	-50.068359
1.030000	26.184082	-16.499023
1.040000	21.820068	-22.602539
1.050000	19.134521	-34.809570
1.060000	23.498535	-7.343750
1.070000	20.812988	-47.016602
1.080000	22.827148	-40.913086
1.090000	22.827148	-22.602539
1.100000	20.141602	1.811523
1.110000	24.505615	-10.395508
1.120000	22.827148	4.863281
1.130000	22.491455	-4.291992
1.140000	23.834229	-4.291992
1.150000	22.155762	-13.447266
1.160000	14.770508	-7.343750
1.170000	25.848389	-4.291992
1.180000	26.855469	-47.016602
1.190000	21.484375	-7.343750
1.200000	21.820068	-10.395508
1.210000	24.841309	-16.499023
1.220000	23.834229	-4.291992
1.230000	22.491455	-10.395508
1.240000	26.519775	10.966797
1.250000	22.827148	-19.550781
1.260000	23.498535	-68.378906
1.270000	22.827148	-37.861328
1.280000	21.820068	4.863281
1.290000	18.127441	-22.602539
1.300000	22.155762	-22.602539
1.310000	23.498535	-16.499023
1.320000	20.477295	-13.447266
1.330000	17.791748	-50.068359
1.340000	21.148682	-13.447266
1.350000	24.169922	-19.550781
1.360000	22.827148	-10.395508
1.370000	21.148682	-71.430664
1.380000	24.841309	26.225586
1.390000	22.155762	-37.861328
1.400000	19.470215	-19.550781
1.410000	23.498535	-25.654297
1.420000	23.498535	-13.447266
1.430000	24.169922	1.811523
1.440000	21.820068	-86.689453
1.450000	10.070801	-47.016602
1.460000	23.498535	-13.447266
1.470000	18.798828	-10.395508
1.480000	21.820068	-19.550781
1.490000	23.498535	-16.499023
1.500000	17.456055	-22.602539
1.510000	22.155762	-22.602539
1.520000	24.169922	1.811523
1.530000	22.491455	-50.068359
1.540000	16.784668	-22.602539
1.550000	22.491455	-19.550781
1.560000	26.519775	-22.602539
1.570000	23.498535	-16.499023
1.580000	22.827148	-4.291992
1.590000	23.834229	10.966797
1.600000	24.841309	-16.499023
1.610000	23.498535	14.018555
1.620000	21.820068	-13.447266
1.630000	23.498535	-13.447266
1.640000	28.869629	-22.602539
1.650000	20.812988	-16.499023
1.660000	20.477295	-13.447266
1.670000	16.448975	4.863281
1.680000	23.498535	-25.654297
1.690000	23.834229	-25.654297
1.700000	20.812988	-19.550781
1.710000	26.519775	-13.447266
1.720000	21.484375	-16.499023
1.730000	22.491455	1.811523
1.740000	25.512695	-43.964844
1.750000	23.834229	-16.499023
1.760000	22.155762	-19.550781
1.770000	21.820068	-4.291992
1.780000	29.205322	-13.447266
1.790000	23.162842	-19.550781
1.800000	20.477295	-22.602539
1.810000	24.169922	-16.499023
1.820000	18.798828	-40.913086
1.830000	27.862549	35.380859
1.840000	24.169922	-22.602539
1.850000	19.470215	-25.654297
1.860000	23.162842	-13.447266
1.870000	10.742187	-31.757812
1.880000	22.155762	-4.291992
1.890000	24.169922	-7.343750
1.900000	23.834229	-16.499023
1.910000	20.141602	-10.395508
1.920000	21.820068	-22.602539
1.930000	24.169922	50.639648
1.940000	22.491455	-16.499023
1.950000	21.148682	7.915039
1.960000	16.113281	-10.395508
1.970000	22.491455	-4.291992
1.980000	19.805908	-10.395508
1.990000	27.191162	1.811523
2.000000	18.798828	-4.291992
2.010000	24.841309	-19.550781
2.020000	24.505615	-1.240234
2.030000	22.155762	-4.291992
2.040000	24.841309	-37.861328
2.050000	22.491455	-22.602539
2.060000	24.841309	-34.809570
2.070000	21.148682	-16.499023
2.080000	24.169922	14.018555
2.090000	22.155762	-10.395508
2.100000	21.820068	-19.550781
2.110000	24.169922	-28.706055
2.120000	25.177002	-13.447266
2.130000	25.177002	-50.068359
2.140000	22.491455	-13.447266
2.150000	22.155762	-25.654297
2.160000	22.155762	-43.964844
2.170000	19.470215	-13.447266
2.180000	24.169922	-13.447266
2.190000	21.148682	-34.809570
2.200000	24.169922	-4.291992
2.210000	25.177002	-16.499023
2.220000	21.148682	-16.499023
2.230000	16.784668	-7.343750
2.240000	23.834229	-10.395508
2.250000	22.155762	-13.447266
2.260000	27.191162	-1.240234
2.270000	25.177002	-4.291992
2.280000	20.477295	-7.343750
2.290000	25.177002	-4.291992
2.300000	22.491455	-7.343750
2.310000	24.505615	-25.654297
2.320000	22.827148	-19.550781
2.330000	23.834229	-19.550781
2.340000	23.834229	-4.291992
2.350000	21.484375	-1.240234
2.360000	24.505615	-22.602539
2.370000	20.141602	-4.291992
2.380000	26.184082	26.225586
2.390000	17.791748	-22.602539
2.400000	19.805908	-31.757812
2.410000	21.820068	-80.585937
2.420000	19.805908	-19.550781
2.430000	23.498535	-10.395508
2.440000	21.148682	-95.844727
2.450000	15.777588	-28.706055
2.460000	23.162842	-19.550781
2.470000	23.498535	-28.706055
2.480000	21.820068	-10.395508
2.490000	23.834229	-34.809570
2.500000	19.470215	-31.757812
2.510000	21.820068	-10.395508
2.520000	20.477295	-19.550781
2.530000	23.162842	-16.499023
2.540000	13.427734	-19.550781
2.550000	21.148682	-25.654297
2.560000	24.505615	1.811523
2.570000	21.484375	-47.016602
2.580000	17.791748	-53.120117
2.590000	24.169922	1.811523
2.600000	21.820068	-7.343750
2.610000	16.784668	-10.395508
2.620000	21.484375	-13.447266
2.630000	27.526855	-37.861328
2.640000	22.827148	-7.343750
2.650000	21.484375	-111.103516
2.660000	23.834229	-22.602539
2.670000	22.491455	-22.602539
2.680000	23.834229	-4.291992
2.690000	24.169922	-28.706055
2.700000	16.448975	-40.913086
2.710000	23.498535	-25.654297
2.720000	24.169922	-4.291992
2.730000	22.155762	-13.447266
2.740000	23.498535	-25.654297
2.750000	21.148682	7.915039
2.760000	21.820068	-13.447266
2.770000	19.805908	-40.913086
2.780000	18.127441	-13.447266
2.790000	23.834229	-34.809570
2.800000	21.148682	-16.499023
2.810000	24.505615	-4.291992
2.820000	22.491455	-56.171875
2.830000	9.063721	-56.171875
2.840000	22.155762	-10.395508
2.850000	19.134521	-22.602539
2.860000	24.169922	-19.550781
2.870000	22.155762	-31.757812
2.880000	22.155762	-47.016602
2.890000	26.519775	-25.654297
2.900000	17.456055	-16.499023
2.910000	23.162842	-13.447266
2.920000	21.148682	-25.654297
2.930000	21.484375	7.915039
2.940000	23.834229	-28.706055
2.950000	23.162842	-16.499023
2.960000	21.148682	-16.499023
2.970000	12.756348	-19.550781
2.980000	27.191162	1.811523
2.990000	24.841309	14.018555
3.000000	23.162842	-13.447266
3.010000	24.841309	-1.240234
3.020000	25.177002	-19.550781
3.030000	23.834229	-28.706055
3.040000	20.141602	-40.913086
3.050000	21.148682	-34.809570
3.060000	24.169922	-7.343750
3.070000	23.162842	-28.706055
3.080000	23.162842	-13.447266
3.090000	25.177002	-1.240234
3.100000	15.106201	-13.447266
3.110000	23.162842	-40.913086
3.120000	22.827148	-4.291992
3.130000	22.491455	-4.291992
3.140000	24.505615	-19.550781
3.150000	22.491455	-7.343750
3.160000	24.505615	-4.291992
3.170000	25.177002	-19.550781
3.180000	21.484375	-16.499023
3.190000	20.477295	-43.964844
3.200000	21.148682	-40.913086
3.210000	23.498535	-25.654297
3.220000	22.491455	-16.499023
3.230000	20.477295	-7.343750
3.240000	23.498535	1.811523
3.250000	22.155762	-25.654297
3.260000	23.498535	-16.499023
3.270000	22.155762	-28.706055
3.280000	21.148682	-10.395508
3.290000	21.820068	-10.395508
3.300000	19.805908	-16.499023
3.310000	22.491455	-25.654297
3.320000	21.484375	-13.447266
3.330000	22.155762	-19.550781
3.340000	21.484375	-19.550781
3.350000	22.827148	20.122070
3.360000	25.177002	-10.395508
3.370000	22.491455	-7.343750
3.380000	22.827148	-10.395508
3.390000	27.191162	-50.068359
3.400000	21.148682	-13.447266
3.410000	23.498535	-22.602539
3.420000	21.484375	-65.327148
3.430000	22.491455	-1.240234
3.440000	22.491455	-13.447266
3.450000	21.484375	-7.343750
3.460000	23.162842	-10.395508
3.470000	22.155762	-16.499023
3.480000	21.820068	4.863281
3.490000	23.498535	-13.447266
3.500000	22.491455	4.863281
3.510000	26.855469	14.018555
3.520000	28.198242	14.018555
3.530000	29.876709	14.018555
3.540000	30.548096	29.277344
3.550000	33.569336	14.018555
3.560000	36.254883	26.225586
3.570000	34.240723	56.743164
3.580000	34.912109	50.639648
3.590000	38.269043	75.053711
3.600000	39.947510	90.312500
3.610000	43.975830	72.001953
3.620000	40.618896	93.364258
3.630000	45.654297	62.846680
3.640000	53.375244	111.674805
3.650000	51.361084	151.347656
3.660000	65.460205	151.347656
3.670000	69.152832	172.709961
3.680000	81.573486	123.881836
3.690000	81.573486	157.451172
3.700000	85.266113	184.916992
3.710000	91.644287	206.279297
3.720000	92.987061	233.745117
3.730000	93.322754	218.486328
3.740000	95.672607	236.796875
3.750000	89.294434	209.331055
3.760000	104.064941	209.331055
3.770000	102.722168	215.434570
3.780000	104.736328	236.796875
3.790000	105.743408	227.641602
3.800000	109.100342	212.382812
3.810000	111.785889	249.003906
3.820000	114.807129	258.159180
3.830000	116.485596	252.055664
3.840000	118.499756	249.003906
3.850000	118.835449	270.366211
3.860000	129.913330	261.210937
3.870000	124.206543	291.728516
3.880000	130.584717	316.142578
3.890000	133.270264	258.159180
3.900000	131.256104	270.366211
3.910000	128.906250	270.366211
3.920000	136.962891	288.676758
3.930000	139.312744	276.469727
3.940000	142.333984	297.832031
3.950000	145.019531	300.883789
3.960000	146.362305	316.142578
3.970000	153.411865	319.194336
3.980000	153.076172	297.832031
3.990000	154.418945	316.142578
4.000000	160.461426	319.194336
4.010000	164.489746	233.745117
4.020000	160.125732	334.453125
4.030000	166.168213	328.349609
4.040000	172.882080	352.763672
4.050000	173.889160	404.643555
4.060000	175.231934	371.074219
4.070000	174.560547	361.918945
4.080000	175.567627	355.815430
4.090000	179.260254	374.125977
4.100000	181.610107	282.573242
4.110000	187.988281	337.504883
4.120000	187.316895	368.022461
4.130000	192.687988	395.488281
4.140000	195.709229	368.022461
4.150000	197.052002	383.281250
4.160000	203.430176	368.022461
4.170000	196.044922	395.488281
4.180000	204.772949	398.540039
4.190000	208.129883	410.747070
4.200000	208.465576	392.436523
4.210000	210.815430	404.643555
4.220000	209.136963	410.747070
4.230000	215.515137	337.504883
4.240000	219.879150	413.798828
4.250000	219.207764	386.333008
4.260000	227.935791	410.747070
4.270000	229.278564	477.885742
4.280000	227.935791	419.902344
4.290000	229.278564	432.109375
4.300000	227.935791	419.902344
4.310000	234.313965	435.161133
4.320000	244.720459	422.954102
4.330000	242.706299	444.316406
4.340000	242.370605	441.264648
4.350000	242.370605	429.057617
4.360000	250.427246	444.316406
4.370000	250.427246	441.264648
4.380000	253.112793	499.248047
4.390000	251.770020	453.471680
4.400000	257.812500	462.626953
4.410000	261.505127	444.316406
4.420000	268.890381	529.765625
4.430000	265.533447	441.264648
4.440000	263.183594	426.005859
4.450000	265.869141	465.678711
4.460000	273.590088	496.196289
4.470000	276.947021	480.937500
4.480000	275.268555	502.299805
4.490000	281.646729	477.885742
4.500000	281.982422	493.144531
4.510000	288.024902	480.937500
4.520000	290.374756	511.455078
4.530000	288.696289	474.833984
4.540000	295.410156	529.765625
4.550000	295.074463	511.455078
4.560000	301.452637	551.127930
4.570000	301.452637	490.092773
4.580000	301.788330	526.713867
4.590000	306.488037	526.713867
4.600000	308.502197	529.765625
4.610000	310.852051	520.610352
4.620000	311.187744	529.765625
4.630000	315.551758	538.920898
4.640000	304.138184	508.403320
4.650000	317.901611	545.024414
4.660000	324.279785	572.490234
4.670000	327.972412	554.179687
4.680000	328.643799	584.697266
4.690000	331.329346	557.231445
4.700000	333.679199	551.127930
4.710000	339.385986	557.231445
4.720000	334.014893	572.490234
4.730000	342.071533	566.386719
4.740000	342.742920	560.283203
4.750000	339.050293	560.283203
4.760000	349.121094	578.593750
4.770000	348.785400	590.800781
4.780000	354.492187	581.645508
4.790000	358.184814	609.111328
4.800000	354.156494	596.904297
4.810000	359.527588	599.956055
4.820000	370.941162	606.059570
4.830000	364.898682	593.852539
4.840000	366.577148	593.852539
4.850000	369.262695	575.541992
4.860000	371.612549	606.059570
4.870000	375.640869	612.163086
4.880000	377.319336	612.163086
4.890000	380.340576	621.318359
4.900000	380.004883	609.111328
4.910000	387.390137	630.473633
4.920000	387.054443	621.318359
4.930000	390.411377	636.577148
4.940000	391.418457	621.318359
4.950000	394.104004	636.577148
4.960000	405.181885	639.628906
4.970000	401.153564	639.628906
4.980000	402.496338	664.042969
4.990000	405.181885	670.146484
5.000000	408.874512	636.577148
5.010000	410.217285	667.094727
5.020000	413.238525	691.508789
5.030000	411.895752	654.887695
5.040000	413.574219	670.146484
5.050000	417.602539	651.835937
5.060000	422.973633	664.042969
5.070000	422.637939	670.146484
5.080000	424.987793	673.198242
5.090000	428.344727	660.991211
5.100000	425.659180	688.457031
5.110000	438.415527	694.560547
5.120000	434.387207	734.233398
5.130000	434.387207	691.508789
5.140000	443.115234	755.595703
5.150000	440.429687	679.301758
5.160000	446.472168	679.301758
5.170000	454.528809	703.715820
5.180000	453.857422	731.181641
5.190000	453.186035	709.819336
5.200000	453.186035	761.699219
5.210000	459.899902	691.508789
5.220000	462.249756	783.061523
5.230000	462.585449	728.129883
5.240000	464.935303	697.612305
5.250000	469.635010	737.285156
5.260000	471.984863	737.285156
5.270000	475.341797	734.233398
5.280000	469.299316	746.440430
5.290000	484.069824	749.492187
5.300000	487.426758	776.958008
5.310000	485.076904	731.181641
5.320000	486.755371	767.802734
5.330000	490.447998	752.543945
5.340000	486.419678	660.991211
5.350000	492.797852	780.009766
5.360000	501.525879	703.715820
5.370000	499.847412	783.061523
5.380000	505.218506	764.750977
5.390000	503.875732	770.854492
5.400000	505.889893	773.906250
5.410000	512.603760	831.889648
5.420000	513.275146	786.113281
5.430000	516.632080	770.854492
5.440000	511.932373	718.974609
5.450000	515.960693	841.044922
5.460000	520.660400	789.165039
5.470000	529.724121	831.889648
5.480000	526.031494	822.734375
5.490000	525.360107	776.958008
5.500000	527.709961	734.233398
5.510000	532.073975	831.889648
5.520000	531.738281	798.320312
5.530000	538.787842	807.475586
5.540000	541.473389	798.320312
5.550000	543.487549	831.889648
5.560000	546.844482	801.372070
5.570000	548.858643	837.993164
5.580000	553.558350	831.889648
5.590000	553.558350	828.837891
5.600000	549.194336	825.786133
5.610000	557.250977	837.993164
5.620000	561.950684	816.630859
5.630000	567.321777	850.200195
5.640000	566.986084	850.200195
5.650000	568.664551	850.200195
5.660000	574.707031	856.303711
5.670000	573.364258	880.717773
5.680000	575.714111	895.976562
5.690000	574.035645	834.941406
5.700000	579.406738	877.666016
5.710000	581.756592	886.821289
5.720000	582.092285	905.131836
5.730000	588.806152	877.666016
5.740000	590.484619	868.510742
5.750000	587.127686	874.614258
5.760000	596.862793	899.028320
5.770000	598.541260	886.821289
5.780000	601.898193	871.562500
5.790000	605.590820	831.889648
5.800000	607.940674	905.131836
5.810000	601.898193	902.080078
5.820000	613.983154	908.183594
5.830000	611.968994	911.235352
5.840000	618.347168	960.063477
5.850000	619.018555	923.442383
5.860000	621.368408	920.390625
5.870000	626.739502	929.545898
5.880000	635.803223	920.390625
5.890000	634.460449	929.545898
5.900000	636.810303	950.908203
5.910000	638.488770	929.545898
5.920000	636.138916	947.856445
5.930000	641.510010	923.442383
5.940000	641.510010	941.752930
5.950000	641.845703	917.338867
5.960000	647.216797	975.322266
5.970000	651.245117	950.908203
5.980000	655.273437	981.425781
5.990000	655.944824	944.804687
6.000000	656.951904	935.649414
6.010000	659.637451	950.908203
6.020000	665.679932	972.270508
6.030000	666.351318	953.959961
6.040000	669.708252	969.218750
6.050000	667.694092	984.477539
6.060000	670.715332	969.218750
6.070000	668.029785	978.374023
6.080000	680.786133	978.374023
6.090000	674.743652	990.581055
6.100000	681.457520	1005.839844
6.110000	683.471680	1005.839844
6.120000	689.514160	987.529297
6.130000	690.521240	1002.788086
6.140000	691.192627	996.684570
6.150000	698.913574	1024.150391
6.160000	695.220947	1008.891602
6.170000	697.570801	1024.150391
6.180000	700.256348	1033.305664
6.190000	704.956055	996.684570
6.200000	709.655762	993.632812
6.210000	709.320068	1051.616211
6.220000	713.012695	999.736328
